Energy(ev),  Intensity
 0.00 , 209
 1.00 , 1528
 2.00 , 80312
 3.00 , 260923
 4.00 , 211351
 5.00 , 351502
 6.00 , 346486
 7.00 , 330385
 8.00 , 313816
 9.00 , 295015
 10.00 , 277727
 11.00 , 262879
 12.00 , 248736
 13.00 , 233839
 14.00 , 223496
 15.00 , 215307
 16.00 , 206158
 17.00 , 196408
 18.00 , 187006
 19.00 , 179300
 20.00 , 174611
 21.00 , 171070
 22.00 , 168533
 23.00 , 166701
 24.00 , 165182
 25.00 , 162555
 26.00 , 158887
 27.00 , 154516
 28.00 , 150147
 29.00 , 145866
 30.00 , 141850
 31.00 , 138361
 32.00 , 135275
 33.00 , 132373
 34.00 , 129733
 35.00 , 127285
 36.00 , 125036
 37.00 , 122682
 38.00 , 120029
 39.00 , 117048
 40.00 , 114027
 41.00 , 111187
 42.00 , 108520
 43.00 , 106101
 44.00 , 103777
 45.00 , 101316
 46.00 , 98758
 47.00 , 95858
 48.00 , 92922
 49.00 , 89851
 50.00 , 86984
 51.00 , 84390
 52.00 , 81793
 53.00 , 79563
 54.00 , 77739
 55.00 , 76073
 56.00 , 74677
 57.00 , 73468
 58.00 , 72415
 59.00 , 71332
 60.00 , 70274
 61.00 , 69162
 62.00 , 67919
 63.00 , 66762
 64.00 , 65599
 65.00 , 64504
 66.00 , 63470
 67.00 , 62617
 68.00 , 61648
 69.00 , 60819
 70.00 , 60064
 71.00 , 59281
 72.00 , 58465
 73.00 , 57748
 74.00 , 56931
 75.00 , 56013
 76.00 , 55207
 77.00 , 54134
 78.00 , 52975
 79.00 , 51660
 80.00 , 50564
 81.00 , 49383
 82.00 , 48395
 83.00 , 47462
 84.00 , 46594
 85.00 , 45657
 86.00 , 44925
 87.00 , 44260
 88.00 , 43583
 89.00 , 42946
 90.00 , 42419
 91.00 , 41938
 92.00 , 41517
 93.00 , 41039
 94.00 , 40689
 95.00 , 40437
 96.00 , 40115
 97.00 , 39872
 98.00 , 39573
 99.00 , 39293
 100.00 , 39108
 101.00 , 38923
 102.00 , 38665
 103.00 , 38558
 104.00 , 38358
 105.00 , 38246
 106.00 , 38081
 107.00 , 38000
 108.00 , 37948
 109.00 , 37897
 110.00 , 37842
 111.00 , 37758
 112.00 , 37763
 113.00 , 37813
 114.00 , 37786
 115.00 , 37829
 116.00 , 37835
 117.00 , 37829
 118.00 , 37891
 119.00 , 37986
 120.00 , 38039
 121.00 , 38067
 122.00 , 38212
 123.00 , 38283
 124.00 , 38305
 125.00 , 38345
 126.00 , 38439
 127.00 , 38473
 128.00 , 38508
 129.00 , 38549
 130.00 , 38600
 131.00 , 38548
 132.00 , 38564
 133.00 , 38533
 134.00 , 38531
 135.00 , 38522
 136.00 , 38506
 137.00 , 38466
 138.00 , 38501
 139.00 , 38436
 140.00 , 38372
 141.00 , 38455
 142.00 , 38467
 143.00 , 38511
 144.00 , 38561
 145.00 , 38650
 146.00 , 38667
 147.00 , 38755
 148.00 , 38924
 149.00 , 39087
 150.00 , 39143
 151.00 , 39216
 152.00 , 39307
 153.00 , 39456
 154.00 , 39442
 155.00 , 39519
 156.00 , 39580
 157.00 , 39722
 158.00 , 39740
 159.00 , 39791
 160.00 , 39882
 161.00 , 39885
 162.00 , 39957
 163.00 , 40006
 164.00 , 40043
 165.00 , 40004
 166.00 , 40071
 167.00 , 40109
 168.00 , 40166
 169.00 , 40293
 170.00 , 40335
 171.00 , 40391
 172.00 , 40541
 173.00 , 40651
 174.00 , 40761
 175.00 , 40988
 176.00 , 40923
 177.00 , 40997
 178.00 , 41198
 179.00 , 41307
 180.00 , 41513
 181.00 , 41598
 182.00 , 41667
 183.00 , 41768
 184.00 , 41961
 185.00 , 41952
 186.00 , 42133
 187.00 , 42224
 188.00 , 42295
 189.00 , 42562
 190.00 , 42564
 191.00 , 42517
 192.00 , 42537
 193.00 , 42481
 194.00 , 42392
 195.00 , 42458
 196.00 , 42475
 197.00 , 42499
 198.00 , 42480
 199.00 , 42471
 200.00 , 42524
 201.00 , 42564
 202.00 , 42593
 203.00 , 42580
 204.00 , 42563
 205.00 , 42566
 206.00 , 42594
 207.00 , 42673
 208.00 , 42721
 209.00 , 42807
 210.00 , 42960
 211.00 , 43160
 212.00 , 43204
 213.00 , 43398
 214.00 , 43530
 215.00 , 43594
 216.00 , 43590
 217.00 , 43554
 218.00 , 43595
 219.00 , 43612
 220.00 , 43774
 221.00 , 43865
 222.00 , 44043
 223.00 , 44151
 224.00 , 44208
 225.00 , 44338
 226.00 , 44502
 227.00 , 44607
 228.00 , 44686
 229.00 , 44889
 230.00 , 44973
 231.00 , 45080
 232.00 , 45270
 233.00 , 45230
 234.00 , 45425
 235.00 , 45498
 236.00 , 45682
 237.00 , 45638
 238.00 , 45683
 239.00 , 45758
 240.00 , 45810
 241.00 , 45857
 242.00 , 45920
 243.00 , 46025
 244.00 , 46106
 245.00 , 46222
 246.00 , 46298
 247.00 , 46537
 248.00 , 46696
 249.00 , 46880
 250.00 , 47181
 251.00 , 47508
 252.00 , 47758
 253.00 , 48101
 254.00 , 48503
 255.00 , 49064
 256.00 , 49370
 257.00 , 49582
 258.00 , 49514
 259.00 , 49245
 260.00 , 48828
 261.00 , 48481
 262.00 , 48084
 263.00 , 47761
 264.00 , 47387
 265.00 , 46880
 266.00 , 46454
 267.00 , 46122
 268.00 , 45973
 269.00 , 45943
 270.00 , 45907
 271.00 , 46038
 272.00 , 46251
 273.00 , 46410
 274.00 , 46633
 275.00 , 46875
 276.00 , 47125
 277.00 , 47470
 278.00 , 47903
 279.00 , 48340
 280.00 , 48824
 281.00 , 49307
 282.00 , 49931
 283.00 , 50453
 284.00 , 51107
 285.00 , 51749
 286.00 , 52276
 287.00 , 52666
 288.00 , 53046
 289.00 , 53267
 290.00 , 53433
 291.00 , 53630
 292.00 , 53691
 293.00 , 53586
 294.00 , 53336
 295.00 , 53174
 296.00 , 52975
 297.00 , 52592
 298.00 , 52127
 299.00 , 51235
 300.00 , 50074
 301.00 , 49008
 302.00 , 48030
 303.00 , 46818
 304.00 , 45659
 305.00 , 44646
 306.00 , 43712
 307.00 , 42950
 308.00 , 42350
 309.00 , 41890
 310.00 , 41561
 311.00 , 41263
 312.00 , 41011
 313.00 , 40947
 314.00 , 40922
 315.00 , 40833
 316.00 , 40808
 317.00 , 40892
 318.00 , 40900
 319.00 , 40978
 320.00 , 41110
 321.00 , 41188
 322.00 , 41381
 323.00 , 41476
 324.00 , 41627
 325.00 , 41816
 326.00 , 41926
 327.00 , 42095
 328.00 , 42246
 329.00 , 42431
 330.00 , 42748
 331.00 , 42974
 332.00 , 43132
 333.00 , 43464
 334.00 , 43736
 335.00 , 44247
 336.00 , 44716
 337.00 , 45353
 338.00 , 46161
 339.00 , 46954
 340.00 , 48134
 341.00 , 49337
 342.00 , 50667
 343.00 , 52594
 344.00 , 55537
 345.00 , 58888
 346.00 , 62379
 347.00 , 69739
 348.00 , 80134
 349.00 , 82322
 350.00 , 76529
 351.00 , 68478
 352.00 , 63069
 353.00 , 64010
 354.00 , 67800
 355.00 , 63462
 356.00 , 53153
 357.00 , 45044
 358.00 , 41227
 359.00 , 39247
 360.00 , 37730
 361.00 , 36433
 362.00 , 35329
 363.00 , 34642
 364.00 , 34174
 365.00 , 33845
 366.00 , 33536
 367.00 , 33219
 368.00 , 33056
 369.00 , 32956
 370.00 , 32895
 371.00 , 32634
 372.00 , 32501
 373.00 , 32457
 374.00 , 32414
 375.00 , 32399
 376.00 , 32419
 377.00 , 32377
 378.00 , 32379
 379.00 , 32297
 380.00 , 32271
 381.00 , 32204
 382.00 , 32257
 383.00 , 32292
 384.00 , 32305
 385.00 , 32353
 386.00 , 32351
 387.00 , 32288
 388.00 , 32280
 389.00 , 32331
 390.00 , 32428
 391.00 , 32335
 392.00 , 32403
 393.00 , 32405
 394.00 , 32442
 395.00 , 32438
 396.00 , 32487
 397.00 , 32439
 398.00 , 32587
 399.00 , 32564
 400.00 , 32586
 401.00 , 32592
 402.00 , 32596
 403.00 , 32631
 404.00 , 32700
 405.00 , 32736
 406.00 , 32773
 407.00 , 32756
 408.00 , 32727
 409.00 , 32795
 410.00 , 32804
 411.00 , 32857
 412.00 , 32801
 413.00 , 32778
 414.00 , 32869
 415.00 , 32917
 416.00 , 32966
 417.00 , 32958
 418.00 , 32976
 419.00 , 33040
 420.00 , 33112
 421.00 , 33140
 422.00 , 33087
 423.00 , 33130
 424.00 , 33168
 425.00 , 33178
 426.00 , 33257
 427.00 , 33243
 428.00 , 33288
 429.00 , 33369
 430.00 , 33397
 431.00 , 33410
 432.00 , 33505
 433.00 , 33494
 434.00 , 33534
 435.00 , 33543
 436.00 , 33544
 437.00 , 33561
 438.00 , 33517
 439.00 , 33643
 440.00 , 33646
 441.00 , 33674
 442.00 , 33702
 443.00 , 33736
 444.00 , 33711
 445.00 , 33793
 446.00 , 33757
 447.00 , 33732
 448.00 , 33771
 449.00 , 33805
 450.00 , 33770
 451.00 , 33816
 452.00 , 33793
 453.00 , 33788
 454.00 , 33845
 455.00 , 33884
 456.00 , 33879
 457.00 , 33923
 458.00 , 33926
 459.00 , 33939
 460.00 , 33927
 461.00 , 33932
 462.00 , 34023
 463.00 , 34025
 464.00 , 34048
 465.00 , 34030
 466.00 , 34062
 467.00 , 34148
 468.00 , 34174
 469.00 , 34136
 470.00 , 34171
 471.00 , 34211
 472.00 , 34203
 473.00 , 34234
 474.00 , 34265
 475.00 , 34276
 476.00 , 34289
 477.00 , 34295
 478.00 , 34378
 479.00 , 34475
 480.00 , 34510
 481.00 , 34441
 482.00 , 34466
 483.00 , 34508
 484.00 , 34575
 485.00 , 34601
 486.00 , 34629
 487.00 , 34688
 488.00 , 34656
 489.00 , 34755
 490.00 , 34795
 491.00 , 34821
 492.00 , 34843
 493.00 , 34877
 494.00 , 34919
 495.00 , 34888
 496.00 , 34996
 497.00 , 34979
 498.00 , 35044
 499.00 , 35015
 500.00 , 35050
 501.00 , 35075
 502.00 , 35085
 503.00 , 34957
 504.00 , 34995
 505.00 , 34981
 506.00 , 34944
 507.00 , 34905
 508.00 , 34955
 509.00 , 34940
 510.00 , 34936
 511.00 , 34878
 512.00 , 34915
 513.00 , 34932
 514.00 , 34907
 515.00 , 34942
 516.00 , 35013
 517.00 , 35011
 518.00 , 35036
 519.00 , 35018
 520.00 , 35029
 521.00 , 35006
 522.00 , 35141
 523.00 , 35173
 524.00 , 35109
 525.00 , 35118
 526.00 , 35140
 527.00 , 35177
 528.00 , 35110
 529.00 , 35150
 530.00 , 35157
 531.00 , 35103
 532.00 , 35117
 533.00 , 35162
 534.00 , 35153
 535.00 , 35139
 536.00 , 35212
 537.00 , 35147
 538.00 , 35200
 539.00 , 35176
 540.00 , 35261
 541.00 , 35212
 542.00 , 35320
 543.00 , 35256
 544.00 , 35283
 545.00 , 35363
 546.00 , 35360
 547.00 , 35408
 548.00 , 35377
 549.00 , 35388
 550.00 , 35473
 551.00 , 35496
 552.00 , 35565
 553.00 , 35572
 554.00 , 35502
 555.00 , 35588
 556.00 , 35546
 557.00 , 35610
 558.00 , 35616
 559.00 , 35686
 560.00 , 35636
 561.00 , 35650
 562.00 , 35684
 563.00 , 35664
 564.00 , 35709
 565.00 , 35688
 566.00 , 35692
 567.00 , 35718
 568.00 , 35748
 569.00 , 35819
 570.00 , 35869
 571.00 , 35840
 572.00 , 35904
 573.00 , 35897
 574.00 , 35878
 575.00 , 35898
 576.00 , 35990
 577.00 , 35926
 578.00 , 36043
 579.00 , 36078
 580.00 , 36018
 581.00 , 36100
 582.00 , 36231
 583.00 , 36200
 584.00 , 36147
 585.00 , 36240
 586.00 , 36185
 587.00 , 36229
 588.00 , 36254
 589.00 , 36271
 590.00 , 36275
 591.00 , 36348
 592.00 , 36368
 593.00 , 36415
 594.00 , 36376
 595.00 , 36356
 596.00 , 36399
 597.00 , 36499
 598.00 , 36505
 599.00 , 36477
 600.00 , 36455
 601.00 , 36540
 602.00 , 36559
 603.00 , 36607
 604.00 , 36647
 605.00 , 36624
 606.00 , 36681
 607.00 , 36695
 608.00 , 36755
 609.00 , 36742
 610.00 , 36781
 611.00 , 36801
 612.00 , 36707
 613.00 , 36782
 614.00 , 36768
 615.00 , 36796
 616.00 , 36857
 617.00 , 36882
 618.00 , 36850
 619.00 , 36894
 620.00 , 36924
 621.00 , 36963
 622.00 , 36972
 623.00 , 37023
 624.00 , 37009
 625.00 , 37095
 626.00 , 37106
 627.00 , 37139
 628.00 , 37126
 629.00 , 37207
 630.00 , 37157
 631.00 , 37166
 632.00 , 37235
 633.00 , 37224
 634.00 , 37266
 635.00 , 37334
 636.00 , 37335
 637.00 , 37317
 638.00 , 37311
 639.00 , 37388
 640.00 , 37405
 641.00 , 37404
 642.00 , 37482
 643.00 , 37385
 644.00 , 37506
 645.00 , 37532
 646.00 , 37626
 647.00 , 37647
 648.00 , 37626
 649.00 , 37601
 650.00 , 37631
 651.00 , 37707
 652.00 , 37654
 653.00 , 37702
 654.00 , 37714
 655.00 , 37721
 656.00 , 37753
 657.00 , 37794
 658.00 , 37831
 659.00 , 37845
 660.00 , 37826
 661.00 , 37926
 662.00 , 37912
 663.00 , 37945
 664.00 , 37936
 665.00 , 37989
 666.00 , 37975
 667.00 , 38015
 668.00 , 38095
 669.00 , 38180
 670.00 , 38137
 671.00 , 38124
 672.00 , 38140
 673.00 , 38186
 674.00 , 38163
 675.00 , 38208
 676.00 , 38223
 677.00 , 38254
 678.00 , 38261
 679.00 , 38303
 680.00 , 38316
 681.00 , 38348
 682.00 , 38392
 683.00 , 38395
 684.00 , 38402
 685.00 , 38460
 686.00 , 38517
 687.00 , 38430
 688.00 , 38516
 689.00 , 38556
 690.00 , 38532
 691.00 , 38509
 692.00 , 38599
 693.00 , 38593
 694.00 , 38640
 695.00 , 38731
 696.00 , 38744
 697.00 , 38706
 698.00 , 38753
 699.00 , 38816
 700.00 , 38760
 701.00 , 38805
 702.00 , 38857
 703.00 , 38822
 704.00 , 38813
 705.00 , 38845
 706.00 , 38881
 707.00 , 38923
 708.00 , 38964
 709.00 , 38964
 710.00 , 39033
 711.00 , 39026
 712.00 , 39075
 713.00 , 39114
 714.00 , 39109
 715.00 , 39077
 716.00 , 39084
 717.00 , 39111
 718.00 , 39231
 719.00 , 39194
 720.00 , 39191
 721.00 , 39232
 722.00 , 39292
 723.00 , 39284
 724.00 , 39345
 725.00 , 39327
 726.00 , 39324
 727.00 , 39356
 728.00 , 39417
 729.00 , 39381
 730.00 , 39445
 731.00 , 39452
 732.00 , 39447
 733.00 , 39504
 734.00 , 39506
 735.00 , 39610
 736.00 , 39629
 737.00 , 39659
 738.00 , 39628
 739.00 , 39707
 740.00 , 39764
 741.00 , 39750
 742.00 , 39733
 743.00 , 39718
 744.00 , 39754
 745.00 , 39828
 746.00 , 39804
 747.00 , 39905
 748.00 , 39901
 749.00 , 39907
 750.00 , 39933
 751.00 , 39853
 752.00 , 39902
 753.00 , 39980
 754.00 , 40011
 755.00 , 40042
 756.00 , 40015
 757.00 , 40037
 758.00 , 40129
 759.00 , 40088
 760.00 , 40157
 761.00 , 40212
 762.00 , 40149
 763.00 , 40221
 764.00 , 40244
 765.00 , 40241
 766.00 , 40240
 767.00 , 40335
 768.00 , 40318
 769.00 , 40323
 770.00 , 40361
 771.00 , 40423
 772.00 , 40429
 773.00 , 40434
 774.00 , 40479
 775.00 , 40491
 776.00 , 40449
 777.00 , 40509
 778.00 , 40533
 779.00 , 40549
 780.00 , 40633
 781.00 , 40599
 782.00 , 40624
 783.00 , 40651
 784.00 , 40680
 785.00 , 40670
 786.00 , 40728
 787.00 , 40747
 788.00 , 40799
 789.00 , 40733
 790.00 , 40850
 791.00 , 40899
 792.00 , 40892
 793.00 , 40898
 794.00 , 40891
 795.00 , 40922
 796.00 , 40958
 797.00 , 40976
 798.00 , 41002
 799.00 , 40965
 800.00 , 41012
 801.00 , 41133
 802.00 , 41110
 803.00 , 41104
 804.00 , 41150
 805.00 , 41142
 806.00 , 41214
 807.00 , 41234
 808.00 , 41248
 809.00 , 41309
 810.00 , 41218
 811.00 , 41261
 812.00 , 41276
 813.00 , 41355
 814.00 , 41337
 815.00 , 41399
 816.00 , 41424
 817.00 , 41435
 818.00 , 41443
 819.00 , 41459
 820.00 , 41455
 821.00 , 41536
 822.00 , 41564
 823.00 , 41567
 824.00 , 41552
 825.00 , 41616
 826.00 , 41620
 827.00 , 41662
 828.00 , 41638
 829.00 , 41728
 830.00 , 41758
 831.00 , 41766
 832.00 , 41750
 833.00 , 41737
 834.00 , 41751
 835.00 , 41792
 836.00 , 41876
 837.00 , 41823
 838.00 , 41908
 839.00 , 41880
 840.00 , 41947
 841.00 , 41910
 842.00 , 42051
 843.00 , 41959
 844.00 , 42102
 845.00 , 42130
 846.00 , 41999
 847.00 , 42131
 848.00 , 42085
 849.00 , 42114
 850.00 , 42182
 851.00 , 42197
 852.00 , 42210
 853.00 , 42183
 854.00 , 42233
 855.00 , 42251
 856.00 , 42337
 857.00 , 42286
 858.00 , 42318
 859.00 , 42326
 860.00 , 42413
 861.00 , 42437
 862.00 , 42427
 863.00 , 42454
 864.00 , 42465
 865.00 , 42531
 866.00 , 42444
 867.00 , 42478
 868.00 , 42556
 869.00 , 42543
 870.00 , 42599
 871.00 , 42603
 872.00 , 42602
 873.00 , 42780
 874.00 , 42681
 875.00 , 42711
 876.00 , 42728
 877.00 , 42742
 878.00 , 42758
 879.00 , 42904
 880.00 , 42963
 881.00 , 42826
 882.00 , 42871
 883.00 , 42884
 884.00 , 42952
 885.00 , 42943
 886.00 , 42924
 887.00 , 42954
 888.00 , 42993
 889.00 , 43071
 890.00 , 43045
 891.00 , 43021
 892.00 , 43100
 893.00 , 43130
 894.00 , 43191
 895.00 , 43158
 896.00 , 43183
 897.00 , 43242
 898.00 , 43266
 899.00 , 43217
 900.00 , 43353
 901.00 , 43346
 902.00 , 43398
 903.00 , 43398
 904.00 , 43301
 905.00 , 43383
 906.00 , 43369
 907.00 , 43474
 908.00 , 43490
 909.00 , 43443
 910.00 , 43459
 911.00 , 43497
 912.00 , 43491
 913.00 , 43643
 914.00 , 43553
 915.00 , 43577
 916.00 , 43592
 917.00 , 43748
 918.00 , 43700
 919.00 , 43754
 920.00 , 43662
 921.00 , 43687
 922.00 , 43769
 923.00 , 43769
 924.00 , 43832
 925.00 , 43785
 926.00 , 43879
 927.00 , 43913
 928.00 , 43869
 929.00 , 43912
 930.00 , 43892
 931.00 , 43989
 932.00 , 44031
 933.00 , 44021
 934.00 , 44004
 935.00 , 44051
 936.00 , 44085
 937.00 , 44151
 938.00 , 44150
 939.00 , 44140
 940.00 , 44139
 941.00 , 44186
 942.00 , 44262
 943.00 , 44340
 944.00 , 44281
 945.00 , 44286
 946.00 , 44357
 947.00 , 44278
 948.00 , 44320
 949.00 , 44418
 950.00 , 44402
 951.00 , 44434
 952.00 , 44443
 953.00 , 44502
 954.00 , 44563
 955.00 , 44501
 956.00 , 44470
 957.00 , 44563
 958.00 , 44606
 959.00 , 44650
 960.00 , 44594
 961.00 , 44657
 962.00 , 44699
 963.00 , 44726
 964.00 , 44723
 965.00 , 44722
 966.00 , 44774
 967.00 , 44791
 968.00 , 44787
 969.00 , 44793
 970.00 , 44812
 971.00 , 44920
 972.00 , 44884
 973.00 , 44879
 974.00 , 44905
 975.00 , 44980
 976.00 , 44989
 977.00 , 45032
 978.00 , 45065
 979.00 , 45082
 980.00 , 45174
 981.00 , 45115
 982.00 , 45146
 983.00 , 45226
 984.00 , 45220
 985.00 , 45249
 986.00 , 45249
 987.00 , 45205
 988.00 , 45301
 989.00 , 45298
 990.00 , 45339
 991.00 , 45369
 992.00 , 45403
 993.00 , 45349
 994.00 , 45405
 995.00 , 45398
 996.00 , 45418
 997.00 , 45497
 998.00 , 45474
 999.00 , 45452
 1000.00 , 45593
 1001.00 , 45566
 1002.00 , 45633
 1003.00 , 45600
 1004.00 , 45618
 1005.00 , 45646
 1006.00 , 45656
 1007.00 , 45696
 1008.00 , 45781
 1009.00 , 45748
 1010.00 , 45727
 1011.00 , 45805
 1012.00 , 45871
 1013.00 , 45873
 1014.00 , 45883
 1015.00 , 45859
 1016.00 , 45939
 1017.00 , 45841
 1018.00 , 45931
 1019.00 , 45957
 1020.00 , 46013
 1021.00 , 46015
 1022.00 , 46101
 1023.00 , 46101
 1024.00 , 46120
 1025.00 , 46177
 1026.00 , 46224
 1027.00 , 46192
 1028.00 , 46176
 1029.00 , 46226
 1030.00 , 46299
 1031.00 , 46238
 1032.00 , 46331
 1033.00 , 46304
 1034.00 , 46362
 1035.00 , 46384
 1036.00 , 46385
 1037.00 , 46394
 1038.00 , 46361
 1039.00 , 46463
 1040.00 , 46514
 1041.00 , 46547
 1042.00 , 46543
 1043.00 , 46621
 1044.00 , 46563
 1045.00 , 46572
 1046.00 , 46662
 1047.00 , 46660
 1048.00 , 46640
 1049.00 , 46678
 1050.00 , 46710
 1051.00 , 46759
 1052.00 , 46767
 1053.00 , 46745
 1054.00 , 46791
 1055.00 , 46820
 1056.00 , 46877
 1057.00 , 46844
 1058.00 , 46862
 1059.00 , 46902
 1060.00 , 46962
 1061.00 , 47019
 1062.00 , 46983
 1063.00 , 46988
 1064.00 , 47048
 1065.00 , 47072
 1066.00 , 47074
 1067.00 , 47048
 1068.00 , 47167
 1069.00 , 47241
 1070.00 , 47189
 1071.00 , 47192
 1072.00 , 47249
 1073.00 , 47228
 1074.00 , 47280
 1075.00 , 47284
 1076.00 , 47351
 1077.00 , 47375
 1078.00 , 47314
 1079.00 , 47418
 1080.00 , 47398
 1081.00 , 47462
 1082.00 , 47496
 1083.00 , 47604
 1084.00 , 47589
 1085.00 , 47585
 1086.00 , 47620
 1087.00 , 47675
 1088.00 , 47652
 1089.00 , 47647
 1090.00 , 47725
 1091.00 , 47725
 1092.00 , 47755
 1093.00 , 47725
 1094.00 , 47777
 1095.00 , 47823
 1096.00 , 47818
 1097.00 , 47850
 1098.00 , 47920
 1099.00 , 47906
 1100.00 , 47928
 1101.00 , 47964
 1102.00 , 47901
 1103.00 , 48018
 1104.00 , 47944
 1105.00 , 47976
 1106.00 , 48036
 1107.00 , 48042
 1108.00 , 48130
 1109.00 , 48210
 1110.00 , 48151
 1111.00 , 48182
 1112.00 , 48234
 1113.00 , 48244
 1114.00 , 48268
 1115.00 , 48241
 1116.00 , 48294
 1117.00 , 48387
 1118.00 , 48399
 1119.00 , 48393
 1120.00 , 48394
 1121.00 , 48426
 1122.00 , 48428
 1123.00 , 48483
 1124.00 , 48465
 1125.00 , 48516
 1126.00 , 48512
 1127.00 , 48566
 1128.00 , 48629
 1129.00 , 48689
 1130.00 , 48642
 1131.00 , 48633
 1132.00 , 48679
 1133.00 , 48809
 1134.00 , 48812
 1135.00 , 48779
 1136.00 , 48786
 1137.00 , 48777
 1138.00 , 48728
 1139.00 , 48820
 1140.00 , 48919
 1141.00 , 48824
 1142.00 , 48955
 1143.00 , 49002
 1144.00 , 49041
 1145.00 , 48959
 1146.00 , 49052
 1147.00 , 49093
 1148.00 , 49051
 1149.00 , 49109
 1150.00 , 49103
 1151.00 , 49109
 1152.00 , 49147
 1153.00 , 49130
 1154.00 , 49261
 1155.00 , 49277
 1156.00 , 49288
 1157.00 , 49328
 1158.00 , 49285
 1159.00 , 49344
 1160.00 , 49473
 1161.00 , 49478
 1162.00 , 49405
 1163.00 , 49435
 1164.00 , 49421
 1165.00 , 49483
 1166.00 , 49558
 1167.00 , 49559
 1168.00 , 49619
 1169.00 , 49604
 1170.00 , 49605
 1171.00 , 49684
 1172.00 , 49648
 1173.00 , 49758
 1174.00 , 49768
 1175.00 , 49756
 1176.00 , 49711
 1177.00 , 49779
 1178.00 , 49780
 1179.00 , 49859
 1180.00 , 49842
 1181.00 , 49896
 1182.00 , 49958
 1183.00 , 49913
 1184.00 , 50000
 1185.00 , 50003
 1186.00 , 50039
 1187.00 , 50035
 1188.00 , 50113
 1189.00 , 50114
 1190.00 , 50167
 1191.00 , 50173
 1192.00 , 50173
 1193.00 , 50249
 1194.00 , 50173
 1195.00 , 50238
 1196.00 , 50306
 1197.00 , 50318
 1198.00 , 50345
 1199.00 , 50387
 1200.00 , 50446
 1201.00 , 50409
 1202.00 , 50469
 1203.00 , 50504
 1204.00 , 50400
 1205.00 , 50471
 1206.00 , 50565
 1207.00 , 50548
 1208.00 , 50572
 1209.00 , 50617
 1210.00 , 50683
 1211.00 , 50707
 1212.00 , 50760
 1213.00 , 50706
 1214.00 , 50719
 1215.00 , 50782
 1216.00 , 50862
 1217.00 , 50850
 1218.00 , 50855
 1219.00 , 50907
 1220.00 , 50979
 1221.00 , 50950
 1222.00 , 50908
 1223.00 , 50952
 1224.00 , 51019
 1225.00 , 51073
 1226.00 , 51186
 1227.00 , 51100
 1228.00 , 51109
 1229.00 , 51146
 1230.00 , 51105
 1231.00 , 51189
 1232.00 , 51225
 1233.00 , 51262
 1234.00 , 51284
 1235.00 , 51304
 1236.00 , 51302
 1237.00 , 51381
 1238.00 , 51357
 1239.00 , 51439
 1240.00 , 51410
 1241.00 , 51482
 1242.00 , 51496
 1243.00 , 51544
 1244.00 , 51561
 1245.00 , 51580
 1246.00 , 51644
 1247.00 , 51650
 1248.00 , 51651
 1249.00 , 51599
 1250.00 , 51700
 1251.00 , 51794
 1252.00 , 51790
 1253.00 , 51739
 1254.00 , 51855
 1255.00 , 51899
 1256.00 , 51883
 1257.00 , 51862
 1258.00 , 51913
 1259.00 , 51931
 1260.00 , 52007
 1261.00 , 51976
 1262.00 , 52015
 1263.00 , 52038
 1264.00 , 52010
 1265.00 , 52051
 1266.00 , 52130
 1267.00 , 52162
 1268.00 , 52156
 1269.00 , 52179
 1270.00 , 52257
 1271.00 , 52220
 1272.00 , 52310
 1273.00 , 52261
 1274.00 , 52390
 1275.00 , 52405
 1276.00 , 52425
 1277.00 , 52482
 1278.00 , 52482
 1279.00 , 52557
 1280.00 , 52496
 1281.00 , 52472
 1282.00 , 52532
 1283.00 , 52581
 1284.00 , 52645
 1285.00 , 52683
 1286.00 , 52632
 1287.00 , 52683
 1288.00 , 52653
 1289.00 , 52692
 1290.00 , 52844
 1291.00 , 52821
 1292.00 , 52840
 1293.00 , 52878
 1294.00 , 52933
 1295.00 , 52918
 1296.00 , 52877
 1297.00 , 52940
 1298.00 , 53059
 1299.00 , 53001
 1300.00 , 53009
 1301.00 , 53096
 1302.00 , 53085
 1303.00 , 53157
 1304.00 , 53227
 1305.00 , 53205
 1306.00 , 53300
 1307.00 , 53246
 1308.00 , 53236
 1309.00 , 53277
 1310.00 , 53279
 1311.00 , 53327
 1312.00 , 53358
 1313.00 , 53374
 1314.00 , 53431
 1315.00 , 53424
 1316.00 , 53566
 1317.00 , 53546
 1318.00 , 53525
 1319.00 , 53526
 1320.00 , 53524
 1321.00 , 53754
 1322.00 , 53660
 1323.00 , 53591
 1324.00 , 53671
 1325.00 , 53737
 1326.00 , 53714
 1327.00 , 53761
 1328.00 , 53838
 1329.00 , 53826
 1330.00 , 53949
 1331.00 , 53923
 1332.00 , 53888
 1333.00 , 53916
 1334.00 , 54047
 1335.00 , 54017
 1336.00 , 53988
 1337.00 , 54028
 1338.00 , 54098
 1339.00 , 54147
 1340.00 , 54137
 1341.00 , 54211
 1342.00 , 54174
 1343.00 , 54267
 1344.00 , 54280
 1345.00 , 54369
 1346.00 , 54369
 1347.00 , 54282
 1348.00 , 54371
 1349.00 , 54430
 1350.00 , 54426
 1351.00 , 54410
 1352.00 , 54497
 1353.00 , 54458
 1354.00 , 54557
 1355.00 , 54596
 1356.00 , 54606
 1357.00 , 54680
 1358.00 , 54738
 1359.00 , 54650
 1360.00 , 54738
 1361.00 , 54737
 1362.00 , 54724
 1363.00 , 54776
 1364.00 , 54803
 1365.00 , 54836
 1366.00 , 54894
 1367.00 , 54915
 1368.00 , 55055
 1369.00 , 54962
 1370.00 , 55044
 1371.00 , 55010
 1372.00 , 54961
 1373.00 , 55051
 1374.00 , 55134
 1375.00 , 55111
 1376.00 , 55260
 1377.00 , 55200
 1378.00 , 55189
 1379.00 , 55273
 1380.00 , 55219
 1381.00 , 55266
 1382.00 , 55357
 1383.00 , 55372
 1384.00 , 55435
 1385.00 , 55425
 1386.00 , 55429
 1387.00 , 55485
 1388.00 , 55493
 1389.00 , 55605
 1390.00 , 55558
 1391.00 , 55535
 1392.00 , 55681
 1393.00 , 55722
 1394.00 , 55700
 1395.00 , 55679
 1396.00 , 55761
 1397.00 , 55745
 1398.00 , 55803
 1399.00 , 55853
 1400.00 , 55908
 1401.00 , 55955
 1402.00 , 55927
 1403.00 , 55982
 1404.00 , 55973
 1405.00 , 55989
 1406.00 , 56002
 1407.00 , 56007
 1408.00 , 56071
 1409.00 , 55992
 1410.00 , 56076
 1411.00 , 56116
 1412.00 , 56157
 1413.00 , 56255
 1414.00 , 56242
 1415.00 , 56342
 1416.00 , 56362
 1417.00 , 56376
 1418.00 , 56437
 1419.00 , 56488
 1420.00 , 56455
 1421.00 , 56424
 1422.00 , 56562
 1423.00 , 56546
 1424.00 , 56573
 1425.00 , 56613
 1426.00 , 56601
 1427.00 , 56691
 1428.00 , 56757
 1429.00 , 56696
 1430.00 , 56726
 1431.00 , 56728
 1432.00 , 56793
 1433.00 , 56849
 1434.00 , 56788
 1435.00 , 56873
 1436.00 , 56913
 1437.00 , 56961
 1438.00 , 56953
 1439.00 , 56987
 1440.00 , 57048
 1441.00 , 57050
 1442.00 , 57071
 1443.00 , 57091
 1444.00 , 57084
 1445.00 , 57178
 1446.00 , 57154
 1447.00 , 57156
 1448.00 , 57254
 1449.00 , 57295
 1450.00 , 57318
 1451.00 , 57345
 1452.00 , 57434
 1453.00 , 57471
 1454.00 , 57419
 1455.00 , 57473
 1456.00 , 57516
 1457.00 , 57537
 1458.00 , 57615
 1459.00 , 57640
 1460.00 , 57612
 1461.00 , 57691
 1462.00 , 57719
 1463.00 , 57716
 1464.00 , 57720
 1465.00 , 57791
 1466.00 , 57831
 1467.00 , 57848
 1468.00 , 57848
 1469.00 , 57863
 1470.00 , 57990
 1471.00 , 57952
 1472.00 , 58077
 1473.00 , 58060
 1474.00 , 58039
 1475.00 , 58122
 1476.00 , 58192
 1477.00 , 58127
 1478.00 , 58185
 1479.00 , 58246
 1480.00 , 58253
 1481.00 , 58298
 1482.00 , 58222
 1483.00 , 58365
 1484.00 , 58343
 1485.00 , 58368
 1486.00 , 58415
 1487.00 , 58477
 1488.00 , 58522
 1489.00 , 58497
 1490.00 , 58594
 1491.00 , 58575
 1492.00 , 58624
 1493.00 , 58601
 1494.00 , 58649
 1495.00 , 58723
 1496.00 , 58795
 1497.00 , 58793
 1498.00 , 58851
 1499.00 , 58817
 1500.00 , 58875
 1501.00 , 58835
 1502.00 , 58906
 1503.00 , 58922
 1504.00 , 58974
 1505.00 , 59050
 1506.00 , 59098
 1507.00 , 59034
 1508.00 , 59140
 1509.00 , 59124
 1510.00 , 59145
 1511.00 , 59175
 1512.00 , 59244
 1513.00 , 59259
 1514.00 , 59252
 1515.00 , 59302
 1516.00 , 59373
 1517.00 , 59370
 1518.00 , 59425
 1519.00 , 59371
 1520.00 , 59438
 1521.00 , 59457
 1522.00 , 59591
 1523.00 , 59639
 1524.00 , 59508
 1525.00 , 59672
 1526.00 , 59606
 1527.00 , 59742
 1528.00 , 59712
 1529.00 , 59789
 1530.00 , 59765
 1531.00 , 59860
 1532.00 , 59828
 1533.00 , 59895
 1534.00 , 59969
 1535.00 , 59961
 1536.00 , 59955
 1537.00 , 59990
 1538.00 , 60019
 1539.00 , 60130
 1540.00 , 60102
 1541.00 , 60147
 1542.00 , 60147
 1543.00 , 60220
 1544.00 , 60286
 1545.00 , 60299
 1546.00 , 60257
 1547.00 , 60368
 1548.00 , 60366
 1549.00 , 60406
 1550.00 , 60432
 1551.00 , 60525
 1552.00 , 60501
 1553.00 , 60475
 1554.00 , 60492
 1555.00 , 60574
 1556.00 , 60670
 1557.00 , 60692
 1558.00 , 60756
 1559.00 , 60819
 1560.00 , 60740
 1561.00 , 60776
 1562.00 , 60860
 1563.00 , 60820
 1564.00 , 60780
 1565.00 , 60936
 1566.00 , 60971
 1567.00 , 61020
 1568.00 , 60944
 1569.00 , 61016
 1570.00 , 61041
 1571.00 , 61149
 1572.00 , 61186
 1573.00 , 61185
 1574.00 , 61194
 1575.00 , 61242
 1576.00 , 61271
 1577.00 , 61294
 1578.00 , 61325
 1579.00 , 61354
 1580.00 , 61403
 1581.00 , 61432
 1582.00 , 61530
 1583.00 , 61529
 1584.00 , 61493
 1585.00 , 61611
 1586.00 , 61621
 1587.00 , 61512
 1588.00 , 61639
 1589.00 , 61730
 1590.00 , 61764
 1591.00 , 61728
 1592.00 , 61758
 1593.00 , 61829
 1594.00 , 61873
 1595.00 , 61934
 1596.00 , 61916
 1597.00 , 61934
 1598.00 , 62038
 1599.00 , 62048
 1600.00 , 62061
 1601.00 , 62094
 1602.00 , 62070
 1603.00 , 62165
 1604.00 , 62213
 1605.00 , 62314
 1606.00 , 62325
 1607.00 , 62316
 1608.00 , 62313
 1609.00 , 62399
 1610.00 , 62448
 1611.00 , 62479
 1612.00 , 62403
 1613.00 , 62439
 1614.00 , 62538
 1615.00 , 62582
 1616.00 , 62619
 1617.00 , 62645
 1618.00 , 62657
 1619.00 , 62742
 1620.00 , 62715
 1621.00 , 62787
 1622.00 , 62866
 1623.00 , 62834
 1624.00 , 62900
 1625.00 , 62920
 1626.00 , 62943
 1627.00 , 62935
 1628.00 , 63005
 1629.00 , 62995
 1630.00 , 63086
 1631.00 , 63144
 1632.00 , 63186
 1633.00 , 63111
 1634.00 , 63163
 1635.00 , 63280
 1636.00 , 63327
 1637.00 , 63355
 1638.00 , 63406
 1639.00 , 63419
 1640.00 , 63426
 1641.00 , 63452
 1642.00 , 63554
 1643.00 , 63477
 1644.00 , 63518
 1645.00 , 63583
 1646.00 , 63661
 1647.00 , 63575
 1648.00 , 63753
 1649.00 , 63716
 1650.00 , 63722
 1651.00 , 63862
 1652.00 , 63864
 1653.00 , 63911
 1654.00 , 63905
 1655.00 , 63858
 1656.00 , 63949
 1657.00 , 63955
 1658.00 , 64036
 1659.00 , 64105
 1660.00 , 64125
 1661.00 , 64141
 1662.00 , 64175
 1663.00 , 64091
 1664.00 , 64231
 1665.00 , 64377
 1666.00 , 64294
 1667.00 , 64380
 1668.00 , 64422
 1669.00 , 64457
 1670.00 , 64448
 1671.00 , 64464
 1672.00 , 64574
 1673.00 , 64490
 1674.00 , 64618
 1675.00 , 64623
 1676.00 , 64662
 1677.00 , 64745
 1678.00 , 64769
 1679.00 , 64855
 1680.00 , 64805
 1681.00 , 64823
 1682.00 , 64921
 1683.00 , 64824
 1684.00 , 64939
 1685.00 , 65003
 1686.00 , 64947
 1687.00 , 64952
 1688.00 , 65123
 1689.00 , 65163
 1690.00 , 65099
 1691.00 , 65052
 1692.00 , 65152
 1693.00 , 65319
 1694.00 , 65328
 1695.00 , 65384
 1696.00 , 65317
 1697.00 , 65326
 1698.00 , 65521
 1699.00 , 65533
 1700.00 , 65421
 1701.00 , 65530
 1702.00 , 65531
 1703.00 , 65556
 1704.00 , 65619
 1705.00 , 65745
 1706.00 , 65666
 1707.00 , 65764
 1708.00 , 65858
 1709.00 , 65829
 1710.00 , 65904
 1711.00 , 66008
 1712.00 , 65956
 1713.00 , 65984
 1714.00 , 65997
 1715.00 , 66005
 1716.00 , 66039
 1717.00 , 66058
 1718.00 , 66135
 1719.00 , 66278
 1720.00 , 66266
 1721.00 , 66242
 1722.00 , 66298
 1723.00 , 66320
 1724.00 , 66329
 1725.00 , 66361
 1726.00 , 66412
 1727.00 , 66541
 1728.00 , 66482
 1729.00 , 66548
 1730.00 , 66522
 1731.00 , 66590
 1732.00 , 66704
 1733.00 , 66692
 1734.00 , 66754
 1735.00 , 66738
 1736.00 , 66792
 1737.00 , 66808
 1738.00 , 66860
 1739.00 , 66880
 1740.00 , 67020
 1741.00 , 66957
 1742.00 , 66972
 1743.00 , 66990
 1744.00 , 67183
 1745.00 , 67227
 1746.00 , 67135
 1747.00 , 67204
 1748.00 , 67291
 1749.00 , 67218
 1750.00 , 67308
 1751.00 , 67398
 1752.00 , 67455
 1753.00 , 67443
 1754.00 , 67454
 1755.00 , 67567
 1756.00 , 67613
 1757.00 , 67555
 1758.00 , 67721
 1759.00 , 67682
 1760.00 , 67691
 1761.00 , 67761
 1762.00 , 67808
 1763.00 , 67840
 1764.00 , 67860
 1765.00 , 67899
 1766.00 , 67928
 1767.00 , 67980
 1768.00 , 67964
 1769.00 , 68009
 1770.00 , 68131
 1771.00 , 68081
 1772.00 , 68094
 1773.00 , 68156
 1774.00 , 68206
 1775.00 , 68229
 1776.00 , 68203
 1777.00 , 68301
 1778.00 , 68309
 1779.00 , 68372
 1780.00 , 68416
 1781.00 , 68452
 1782.00 , 68528
 1783.00 , 68539
 1784.00 , 68587
 1785.00 , 68678
 1786.00 , 68759
 1787.00 , 68719
 1788.00 , 68756
 1789.00 , 68833
 1790.00 , 68788
 1791.00 , 68838
 1792.00 , 68823
 1793.00 , 68829
 1794.00 , 68959
 1795.00 , 69054
 1796.00 , 69027
 1797.00 , 69111
 1798.00 , 69066
 1799.00 , 69255
 1800.00 , 69247
 1801.00 , 69238
 1802.00 , 69374
 1803.00 , 69364
 1804.00 , 69385
 1805.00 , 69419
 1806.00 , 69430
 1807.00 , 69510
 1808.00 , 69446
 1809.00 , 69515
 1810.00 , 69537
 1811.00 , 69558
 1812.00 , 69703
 1813.00 , 69754
 1814.00 , 69835
 1815.00 , 69824
 1816.00 , 69807
 1817.00 , 69883
 1818.00 , 69894
 1819.00 , 69903
 1820.00 , 69834
 1821.00 , 69927
 1822.00 , 70077
 1823.00 , 70105
 1824.00 , 70185
 1825.00 , 70156
 1826.00 , 70376
 1827.00 , 70313
 1828.00 , 70357
 1829.00 , 70345
 1830.00 , 70392
 1831.00 , 70425
 1832.00 , 70496
 1833.00 , 70501
 1834.00 , 70459
 1835.00 , 70611
 1836.00 , 70605
 1837.00 , 70663
 1838.00 , 70647
 1839.00 , 70776
 1840.00 , 70670
 1841.00 , 70840
 1842.00 , 70885
 1843.00 , 70889
 1844.00 , 70947
 1845.00 , 70889
 1846.00 , 70994
 1847.00 , 71093
 1848.00 , 71075
 1849.00 , 71052
 1850.00 , 71078
 1851.00 , 71180
 1852.00 , 71180
 1853.00 , 71180
 1854.00 , 71272
 1855.00 , 71356
 1856.00 , 71440
 1857.00 , 71450
 1858.00 , 71445
 1859.00 , 71500
 1860.00 , 71563
 1861.00 , 71659
 1862.00 , 71624
 1863.00 , 71652
 1864.00 , 71712
 1865.00 , 71809
 1866.00 , 71872
 1867.00 , 71807
 1868.00 , 71900
 1869.00 , 72019
 1870.00 , 72056
 1871.00 , 71964
 1872.00 , 72028
 1873.00 , 72088
 1874.00 , 72078
 1875.00 , 72070
 1876.00 , 72158
 1877.00 , 72302
 1878.00 , 72349
 1879.00 , 72354
 1880.00 , 72470
 1881.00 , 72474
 1882.00 , 72465
 1883.00 , 72498
 1884.00 , 72568
 1885.00 , 72535
 1886.00 , 72544
 1887.00 , 72655
 1888.00 , 72715
 1889.00 , 72734
 1890.00 , 72827
 1891.00 , 72793
 1892.00 , 72874
 1893.00 , 72921
 1894.00 , 72887
 1895.00 , 72925
 1896.00 , 73047
 1897.00 , 73056
 1898.00 , 73083
 1899.00 , 73178
 1900.00 , 73221
 1901.00 , 73199
 1902.00 , 73198
 1903.00 , 73239
 1904.00 , 73351
 1905.00 , 73390
 1906.00 , 73396
 1907.00 , 73499
 1908.00 , 73543
 1909.00 , 73561
 1910.00 , 73587
 1911.00 , 73706
 1912.00 , 73712
 1913.00 , 73739
 1914.00 , 73701
 1915.00 , 73792
 1916.00 , 73930
 1917.00 , 73890
 1918.00 , 74050
 1919.00 , 74046
 1920.00 , 73968
 1921.00 , 74047
 1922.00 , 74025
 1923.00 , 74214
 1924.00 , 74248
 1925.00 , 74289
 1926.00 , 74359
 1927.00 , 74262
 1928.00 , 74289
 1929.00 , 74379
 1930.00 , 74447
 1931.00 , 74449
 1932.00 , 74478
 1933.00 , 74595
 1934.00 , 74581
 1935.00 , 74590
 1936.00 , 74688
 1937.00 , 74771
 1938.00 , 74851
 1939.00 , 74845
 1940.00 , 74909
 1941.00 , 74970
 1942.00 , 74910
 1943.00 , 75016
 1944.00 , 74984
 1945.00 , 75097
 1946.00 , 75075
 1947.00 , 75146
 1948.00 , 75195
 1949.00 , 75253
 1950.00 , 75361
 1951.00 , 75319
 1952.00 , 75341
 1953.00 , 75445
 1954.00 , 75554
 1955.00 , 75555
 1956.00 , 75568
 1957.00 , 75574
 1958.00 , 75641
 1959.00 , 75682
 1960.00 , 75815
 1961.00 , 75792
 1962.00 , 75826
 1963.00 , 75846
 1964.00 , 75916
 1965.00 , 75917
 1966.00 , 76043
 1967.00 , 76003
 1968.00 , 76085
 1969.00 , 76098
 1970.00 , 76056
 1971.00 , 76186
 1972.00 , 76246
 1973.00 , 76308
 1974.00 , 76242
 1975.00 , 76313
 1976.00 , 76474
 1977.00 , 76494
 1978.00 , 76563
 1979.00 , 76593
 1980.00 , 76651
 1981.00 , 76644
 1982.00 , 76667
 1983.00 , 76710
 1984.00 , 76715
 1985.00 , 76888
 1986.00 , 76862
 1987.00 , 76988
 1988.00 , 77018
 1989.00 , 77071
 1990.00 , 77118
 1991.00 , 77121
 1992.00 , 77203
 1993.00 , 77325
 1994.00 , 77222
 1995.00 , 77262
 1996.00 , 77351
 1997.00 , 77308
 1998.00 , 77428
 1999.00 , 77421
 2000.00 , 77567
 2001.00 , 77538
 2002.00 , 77653
 2003.00 , 77605
 2004.00 , 77674
 2005.00 , 77759
 2006.00 , 77742
 2007.00 , 77773
 2008.00 , 77939
 2009.00 , 77872
 2010.00 , 77913
 2011.00 , 77958
 2012.00 , 78047
 2013.00 , 78088
 2014.00 , 78195
 2015.00 , 78227
 2016.00 , 78220
 2017.00 , 78319
 2018.00 , 78299
 2019.00 , 78368
 2020.00 , 78478
 2021.00 , 78475
 2022.00 , 78557
 2023.00 , 78670
 2024.00 , 78641
 2025.00 , 78627
 2026.00 , 78654
 2027.00 , 78575
 2028.00 , 78712
 2029.00 , 78803
 2030.00 , 78874
 2031.00 , 78867
 2032.00 , 78933
 2033.00 , 78916
 2034.00 , 79038
 2035.00 , 79149
 2036.00 , 79201
 2037.00 , 79185
 2038.00 , 79168
 2039.00 , 79262
 2040.00 , 79239
 2041.00 , 79309
 2042.00 , 79295
 2043.00 , 79399
 2044.00 , 79313
 2045.00 , 79442
 2046.00 , 79627
 2047.00 , 79607
 2048.00 , 79563
 2049.00 , 79641
 2050.00 , 79654
 2051.00 , 79822
 2052.00 , 79818
 2053.00 , 79844
 2054.00 , 79914
 2055.00 , 79833
 2056.00 , 79875
 2057.00 , 79887
 2058.00 , 79992
 2059.00 , 80097
 2060.00 , 80183
 2061.00 , 80066
 2062.00 , 80214
 2063.00 , 80270
 2064.00 , 80389
 2065.00 , 80336
 2066.00 , 80376
 2067.00 , 80488
 2068.00 , 80362
 2069.00 , 80466
 2070.00 , 80545
 2071.00 , 80602
 2072.00 , 80572
 2073.00 , 80673
 2074.00 , 80793
 2075.00 , 80810
 2076.00 , 80925
 2077.00 , 80944
 2078.00 , 80922
 2079.00 , 80970
 2080.00 , 80972
 2081.00 , 81005
 2082.00 , 81012
 2083.00 , 81089
 2084.00 , 81222
 2085.00 , 81322
 2086.00 , 81344
 2087.00 , 81423
 2088.00 , 81410
 2089.00 , 81548
 2090.00 , 81483
 2091.00 , 81470
 2092.00 , 81604
 2093.00 , 81590
 2094.00 , 81734
 2095.00 , 81761
 2096.00 , 81825
 2097.00 , 81863
 2098.00 , 81870
 2099.00 , 81958
 2100.00 , 82006
 2101.00 , 81944
 2102.00 , 81995
 2103.00 , 82177
 2104.00 , 82149
 2105.00 , 82230
 2106.00 , 82256
 2107.00 , 82307
 2108.00 , 82379
 2109.00 , 82396
 2110.00 , 82462
 2111.00 , 82454
 2112.00 , 82585
 2113.00 , 82667
 2114.00 , 82693
 2115.00 , 82881
 2116.00 , 82814
 2117.00 , 82918
 2118.00 , 82912
 2119.00 , 82949
 2120.00 , 82992
 2121.00 , 83107
 2122.00 , 83105
 2123.00 , 83133
 2124.00 , 83294
 2125.00 , 83313
 2126.00 , 83286
 2127.00 , 83355
 2128.00 , 83491
 2129.00 , 83556
 2130.00 , 83570
 2131.00 , 83761
 2132.00 , 83574
 2133.00 , 83757
 2134.00 , 83806
 2135.00 , 83856
 2136.00 , 83941
 2137.00 , 84049
 2138.00 , 84035
 2139.00 , 83975
 2140.00 , 84073
 2141.00 , 84169
 2142.00 , 84229
 2143.00 , 84230
 2144.00 , 84205
 2145.00 , 84127
 2146.00 , 84323
 2147.00 , 84302
 2148.00 , 84295
 2149.00 , 84296
 2150.00 , 84355
 2151.00 , 84475
 2152.00 , 84506
 2153.00 , 84552
 2154.00 , 84437
 2155.00 , 84631
 2156.00 , 84620
 2157.00 , 84642
 2158.00 , 84703
 2159.00 , 84740
 2160.00 , 84776
 2161.00 , 84843
 2162.00 , 84934
 2163.00 , 84951
 2164.00 , 84993
 2165.00 , 85057
 2166.00 , 85123
 2167.00 , 85158
 2168.00 , 85160
 2169.00 , 85157
 2170.00 , 85177
 2171.00 , 85293
 2172.00 , 85316
 2173.00 , 85356
 2174.00 , 85396
 2175.00 , 85433
 2176.00 , 85436
 2177.00 , 85507
 2178.00 , 85569
 2179.00 , 85433
 2180.00 , 85377
 2181.00 , 85393
 2182.00 , 85440
 2183.00 , 85514
 2184.00 , 85611
 2185.00 , 85498
 2186.00 , 85567
 2187.00 , 85467
 2188.00 , 85546
 2189.00 , 85701
 2190.00 , 85674
 2191.00 , 85722
 2192.00 , 85747
 2193.00 , 85719
 2194.00 , 85823
 2195.00 , 85881
 2196.00 , 85835
 2197.00 , 85968
 2198.00 , 86016
 2199.00 , 85976
 2200.00 , 85961
 2201.00 , 86082
 2202.00 , 86150
 2203.00 , 86204
 2204.00 , 86303
 2205.00 , 86293
 2206.00 , 86371
 2207.00 , 86388
 2208.00 , 86499
 2209.00 , 86548
 2210.00 , 86558
 2211.00 , 86657
 2212.00 , 86667
 2213.00 , 86597
 2214.00 , 86718
 2215.00 , 86825
 2216.00 , 86870
 2217.00 , 86939
 2218.00 , 87007
 2219.00 , 87040
 2220.00 , 87124
 2221.00 , 87189
 2222.00 , 87217
 2223.00 , 87252
 2224.00 , 87295
 2225.00 , 87355
 2226.00 , 87372
 2227.00 , 87402
 2228.00 , 87476
 2229.00 , 87624
 2230.00 , 87617
 2231.00 , 87625
 2232.00 , 87606
 2233.00 , 87706
 2234.00 , 87840
 2235.00 , 87736
 2236.00 , 87813
 2237.00 , 87973
 2238.00 , 87936
 2239.00 , 88015
 2240.00 , 88016
 2241.00 , 88155
 2242.00 , 88243
 2243.00 , 88212
 2244.00 , 88173
 2245.00 , 88198
 2246.00 , 88347
 2247.00 , 88399
 2248.00 , 88392
 2249.00 , 88429
 2250.00 , 88544
 2251.00 , 88540
 2252.00 , 88708
 2253.00 , 88698
 2254.00 , 88774
 2255.00 , 88822
 2256.00 , 88797
 2257.00 , 88900
 2258.00 , 88946
 2259.00 , 89022
 2260.00 , 89202
 2261.00 , 89184
 2262.00 , 89259
 2263.00 , 89319
 2264.00 , 89413
 2265.00 , 89436
 2266.00 , 89433
 2267.00 , 89395
 2268.00 , 89466
 2269.00 , 89587
 2270.00 , 89615
 2271.00 , 89582
 2272.00 , 89723
 2273.00 , 89695
 2274.00 , 89826
 2275.00 , 89968
 2276.00 , 89890
 2277.00 , 89946
 2278.00 , 89996
 2279.00 , 90048
 2280.00 , 90112
 2281.00 , 90129
 2282.00 , 90253
 2283.00 , 90439
 2284.00 , 90423
 2285.00 , 90394
 2286.00 , 90508
 2287.00 , 90483
 2288.00 , 90499
 2289.00 , 90566
 2290.00 , 90657
 2291.00 , 90706
 2292.00 , 90847
 2293.00 , 90843
 2294.00 , 90904
 2295.00 , 90948
 2296.00 , 91084
 2297.00 , 91097
 2298.00 , 91178
 2299.00 , 91190
 2300.00 , 91319
 2301.00 , 91426
 2302.00 , 91344
 2303.00 , 91431
 2304.00 , 91496
 2305.00 , 91532
 2306.00 , 91634
 2307.00 , 91657
 2308.00 , 91716
 2309.00 , 91771
 2310.00 , 91922
 2311.00 , 91985
 2312.00 , 92034
 2313.00 , 92116
 2314.00 , 92094
 2315.00 , 92151
 2316.00 , 92066
 2317.00 , 92171
 2318.00 , 92304
 2319.00 , 92291
 2320.00 , 92428
 2321.00 , 92329
 2322.00 , 92550
 2323.00 , 92618
 2324.00 , 92560
 2325.00 , 92549
 2326.00 , 92631
 2327.00 , 92767
 2328.00 , 92805
 2329.00 , 92748
 2330.00 , 92887
 2331.00 , 92957
 2332.00 , 93082
 2333.00 , 93093
 2334.00 , 93187
 2335.00 , 93202
 2336.00 , 93387
 2337.00 , 93414
 2338.00 , 93472
 2339.00 , 93429
 2340.00 , 93423
 2341.00 , 93431
 2342.00 , 93478
 2343.00 , 93540
 2344.00 , 93490
 2345.00 , 93573
 2346.00 , 93563
 2347.00 , 93605
 2348.00 , 93541
 2349.00 , 93635
 2350.00 , 93619
 2351.00 , 93652
 2352.00 , 93637
 2353.00 , 93773
 2354.00 , 93751
 2355.00 , 93769
 2356.00 , 93876
 2357.00 , 93878
 2358.00 , 94009
 2359.00 , 94029
 2360.00 , 94106
 2361.00 , 94205
 2362.00 , 94332
 2363.00 , 94258
 2364.00 , 94336
 2365.00 , 94503
 2366.00 , 94566
 2367.00 , 94675
 2368.00 , 94630
 2369.00 , 94685
 2370.00 , 94646
 2371.00 , 94712
 2372.00 , 94790
 2373.00 , 94794
 2374.00 , 94699
 2375.00 , 94660
 2376.00 , 94524
 2377.00 , 94602
 2378.00 , 94518
 2379.00 , 94546
 2380.00 , 94388
 2381.00 , 94396
 2382.00 , 94349
 2383.00 , 94332
 2384.00 , 94266
 2385.00 , 94197
 2386.00 , 94277
 2387.00 , 94232
 2388.00 , 94258
 2389.00 , 94278
 2390.00 , 94284
 2391.00 , 94380
 2392.00 , 94365
 2393.00 , 94374
 2394.00 , 94460
 2395.00 , 94496
 2396.00 , 94356
 2397.00 , 94513
 2398.00 , 94552
 2399.00 , 94568
 2400.00 , 94748
 2401.00 , 94739
 2402.00 , 94786
 2403.00 , 94839
 2404.00 , 94792
 2405.00 , 94875
 2406.00 , 94899
 2407.00 , 94978
 2408.00 , 95076
 2409.00 , 95090
 2410.00 , 95141
 2411.00 , 95220
 2412.00 , 95223
 2413.00 , 95295
 2414.00 , 95386
 2415.00 , 95399
 2416.00 , 95490
 2417.00 , 95477
 2418.00 , 95524
 2419.00 , 95603
 2420.00 , 95616
 2421.00 , 95730
 2422.00 , 95716
 2423.00 , 95828
 2424.00 , 95839
 2425.00 , 95939
 2426.00 , 96033
 2427.00 , 96143
 2428.00 , 96124
 2429.00 , 96218
 2430.00 , 96305
 2431.00 , 96383
 2432.00 , 96378
 2433.00 , 96426
 2434.00 , 96501
 2435.00 , 96564
 2436.00 , 96610
 2437.00 , 96684
 2438.00 , 96620
 2439.00 , 96748
 2440.00 , 96828
 2441.00 , 96876
 2442.00 , 96887
 2443.00 , 96930
 2444.00 , 96989
 2445.00 , 97033
 2446.00 , 97169
 2447.00 , 97128
 2448.00 , 97295
 2449.00 , 97287
 2450.00 , 97338
 2451.00 , 97341
 2452.00 , 97432
 2453.00 , 97535
 2454.00 , 97548
 2455.00 , 97703
 2456.00 , 97790
 2457.00 , 97871
 2458.00 , 97931
 2459.00 , 97940
 2460.00 , 97862
 2461.00 , 97994
 2462.00 , 98002
 2463.00 , 98070
 2464.00 , 98160
 2465.00 , 98226
 2466.00 , 98223
 2467.00 , 98295
 2468.00 , 98428
 2469.00 , 98484
 2470.00 , 98468
 2471.00 , 98539
 2472.00 , 98563
 2473.00 , 98794
 2474.00 , 98775
 2475.00 , 98880
 2476.00 , 98900
 2477.00 , 98933
 2478.00 , 98983
 2479.00 , 99096
 2480.00 , 99131
 2481.00 , 99282
 2482.00 , 99271
 2483.00 , 99326
 2484.00 , 99400
 2485.00 , 99451
 2486.00 , 99568
 2487.00 , 99695
 2488.00 , 99708
 2489.00 , 99815
 2490.00 , 99820
 2491.00 , 99816
 2492.00 , 100053
 2493.00 , 100041
 2494.00 , 100051
 2495.00 , 100069
 2496.00 , 100165
 2497.00 , 100237
 2498.00 , 100237
 2499.00 , 100398
 2500.00 , 100491
